SpectraSuite Datei
++++++++++++++++++++++++++++++++++++
Datum: Tue Dec 13 14:39:57 CET 2016
Benutzer: Admin
Dark-Spektrum vorhanden: Ja
Referenz-Spektrum vorhanden: Ja
Zahl der probierten Teilspektren: 1
Spektrometer: USB4F05832
Integrationszeit (usec): 501000 (USB4F05832)
Spektren Durchschnitt berechnet: 15 (USB4F05832)
Boxcar Glättung: 0 (USB4F05832)
Dunkelstromkorrektur: Nein (USB4F05832)
Puls/Lampe aktiviert: Nein (USB4F05832)
Correct for Detector Non-linearity: Nein (USB4F05832)
Streulichtkorrektur: Nein (USB4F05832)
Anzahl Pixel in verarbeitetem Spektrum: 3648
>>>>>Begin Processed Spectral Data<<<<<
177,54	12,97
177,75	12,97
177,97	12,97
178,19	-15,70
178,41	15,70
178,63	592,96
178,85	209,03
179,07	355,12
179,29	431,98
179,51	215,99
179,73	469,12
179,95	368,50
180,17	366,72
180,39	603,47
180,61	382,56
180,83	568,65
181,05	303,51
181,27	468,98
181,49	424,48
181,71	447,82
181,92	687,57
182,14	462,29
182,36	284,39
182,58	601,69
182,80	458,20
183,02	790,93
183,24	601,42
183,46	597,05
183,68	463,66
183,90	569,20
184,12	293,68
184,34	606,74
184,56	481,55
184,78	368,63
185,00	434,31
185,21	499,16
185,43	375,73
185,65	558,41
185,87	508,03
186,09	751,33
186,31	470,49
186,53	566,74
186,75	521,96
186,97	560,32
187,19	593,64
187,41	341,46
187,63	570,56
187,84	304,74
188,06	539,98
188,28	480,18
188,50	573,29
188,72	558,96
188,94	629,27
189,16	394,44
189,38	466,39
189,60	580,94
189,82	417,92
190,03	544,08
190,25	460,66
190,47	487,28
190,69	438,81
190,91	376,69
191,13	461,07
191,35	535,61
191,57	433,49
191,79	663,41
192,01	506,12
192,22	608,79
192,44	467,35
192,66	536,16
192,88	550,63
193,10	500,66
193,32	384,06
193,54	682,93
193,76	727,71
193,98	459,02
194,19	503,80
194,41	488,37
194,63	349,66
194,85	517,04
195,07	553,63
195,29	364,27
195,51	600,46
195,73	420,38
195,94	521,14
196,16	585,31
196,38	706,41
196,60	420,79
196,82	440,86
197,04	453,56
197,26	338,73
197,48	393,89
197,69	447,55
197,91	464,34
198,13	355,12
198,35	492,60
198,57	400,04
198,79	670,10
199,01	631,05
199,22	436,35
199,44	537,93
199,66	475,54
199,88	555,96
200,10	560,60
200,32	586,54
200,54	577,53
200,75	710,65
200,97	406,04
201,19	656,58
201,41	565,92
201,63	425,57
201,85	346,38
202,06	508,44
202,28	466,80
202,50	560,87
202,72	326,86
202,94	376,55
203,16	435,81
203,38	523,87
203,59	440,04
203,81	612,07
204,03	325,22
204,25	518,00
204,47	695,63
204,69	508,31
204,90	406,04
205,12	562,37
205,34	461,61
205,56	500,25
205,78	487,28
206,00	710,24
206,21	571,25
206,43	492,06
206,65	589,00
206,87	411,91
207,09	533,15
207,30	382,70
207,52	613,43
207,74	607,56
207,96	466,94
208,18	386,79
208,40	441,13
208,61	504,89
208,83	528,10
209,05	291,36
209,27	390,75
209,49	613,71
209,70	566,20
209,92	549,40
210,14	412,87
210,36	503,12
210,58	533,56
210,79	525,10
211,01	316,34
211,23	640,60
211,45	582,31
211,67	491,24
211,88	378,06
212,10	629,68
212,32	442,91
212,54	466,12
212,76	473,22
212,97	336,96
213,19	350,89
213,41	658,08
213,63	391,44
213,85	454,38
214,06	382,83
214,28	589,13
214,50	462,98
214,72	513,22
214,94	510,49
215,15	488,51
215,37	469,80
215,59	449,32
215,81	643,20
216,02	572,75
216,24	585,17
216,46	372,59
216,68	487,55
216,90	436,76
217,11	682,38
217,33	420,11
217,55	614,94
217,77	501,89
217,98	604,29
218,20	575,48
218,42	683,34
218,64	515,68
218,85	706,82
219,07	529,33
219,29	554,45
219,51	548,31
219,73	456,83
219,94	452,33
220,16	606,47
220,38	476,49
220,60	430,07
220,81	378,19
221,03	293,54
221,25	552,27
221,47	346,52
221,68	496,29
221,90	514,45
222,12	475,54
222,34	474,17
222,55	585,31
222,77	570,70
222,99	463,80
223,21	558,14
223,42	607,02
223,64	513,63
223,86	467,21
224,08	534,25
224,29	676,24
224,51	505,85
224,73	478,27
224,94	528,65
225,16	387,48
225,38	455,74
225,60	619,44
225,81	441,54
226,03	469,94
226,25	361,53
226,47	566,20
226,68	575,48
226,90	583,94
227,12	543,39
227,33	527,42
227,55	505,03
227,77	438,67
227,99	653,98
228,20	427,62
228,42	588,59
228,64	546,67
228,86	513,08
229,07	460,52
229,29	383,93
229,51	191,55
229,72	658,35
229,94	545,85
230,16	583,94
230,38	432,39
230,59	476,77
230,81	629,82
231,03	571,79
231,24	480,18
231,46	453,56
231,68	419,70
231,89	469,12
232,11	492,88
232,33	696,04
232,55	471,58
232,76	658,90
232,98	569,20
233,20	411,23
233,41	381,06
233,63	453,69
233,85	544,90
234,06	465,44
234,28	632,00
234,50	439,90
234,71	564,83
234,93	631,05
235,15	508,31
235,37	303,10
235,58	540,80
235,80	417,92
236,02	419,01
236,23	568,79
236,45	481,55
236,67	518,27
236,88	529,06
237,10	580,53
237,32	620,67
237,53	496,97
237,75	484,96
237,97	366,18
238,18	449,46
238,40	536,02
238,62	445,09
238,83	513,08
239,05	471,72
239,27	498,20
239,48	335,32
239,70	432,26
239,92	642,79
240,13	636,10
240,35	438,13
240,57	546,26
240,78	597,19
241,00	354,84
241,22	407,82
241,43	709,83
241,65	445,23
241,87	603,20
242,08	666,96
242,30	388,57
242,52	506,39
242,73	570,15
242,95	391,84
243,16	519,50
243,38	675,28
243,60	574,25
243,81	566,47
244,03	648,80
244,25	425,02
244,46	466,80
244,68	445,77
244,90	515,68
245,11	333,68
245,33	560,19
245,55	531,79
245,76	463,11
245,98	477,59
246,19	628,73
246,41	655,76
246,63	668,73
246,84	598,96
247,06	499,98
247,28	551,72
247,49	646,07
247,71	372,87
247,92	574,80
248,14	522,64
248,36	541,21
248,57	639,92
248,79	674,46
249,01	571,38
249,22	508,58
249,44	530,97
249,65	469,26
249,87	505,58
250,09	572,48
250,30	540,94
250,52	490,56
250,73	542,85
250,95	366,45
251,17	556,23
251,38	430,76
251,60	367,00
251,81	761,30
252,03	729,08
252,25	401,95
252,46	425,70
252,68	625,72
252,89	604,70
253,11	510,08
253,33	521,82
253,54	295,73
253,76	577,53
253,97	634,60
254,19	617,53
254,41	396,90
254,62	605,38
254,84	498,89
255,05	559,23
255,27	713,92
255,49	646,34
255,70	632,14
255,92	453,01
256,13	434,85
256,35	627,22
256,56	591,86
256,78	523,05
257,00	703,27
257,21	451,78
257,43	352,66
257,64	555,68
257,86	633,78
258,08	623,54
258,29	557,59
258,51	503,94
258,72	604,42
258,94	689,62
259,15	604,70
259,37	458,88
259,59	377,37
259,80	684,98
260,02	435,67
260,23	501,89
260,45	454,51
260,66	568,38
260,88	525,37
261,09	484,69
261,31	502,30
261,53	614,66
261,74	750,65
261,96	228,01
262,17	420,79
262,39	558,14
262,60	458,74
262,82	513,63
263,03	424,61
263,25	553,77
263,46	438,54
263,68	560,60
263,90	592,00
264,11	469,26
264,33	591,18
264,54	534,93
264,76	526,87
264,97	660,40
265,19	446,18
265,40	571,66
265,62	489,05
265,83	588,59
266,05	476,08
266,26	476,36
266,48	696,58
266,70	628,73
266,91	374,91
267,13	496,97
267,34	487,28
267,56	629,68
267,77	446,46
267,99	485,37
268,20	821,65
268,42	536,02
268,63	393,76
268,85	726,76
269,06	659,72
269,28	659,72
269,49	553,63
269,71	566,60
269,92	479,63
270,14	356,48
270,35	430,48
270,57	508,72
270,78	461,61
271,00	476,49
271,21	674,19
271,43	409,73
271,64	501,62
271,86	685,52
272,07	358,94
272,29	691,53
272,50	490,83
272,72	717,34
272,93	603,33
273,15	552,68
273,36	686,75
273,58	557,73
273,79	572,07
274,01	538,07
274,22	474,04
274,44	519,09
274,65	595,69
274,87	602,10
275,08	523,05
275,30	499,84
275,51	798,71
275,73	751,88
275,94	464,07
276,16	521,82
276,37	514,86
276,59	620,81
276,80	484,69
277,02	574,11
277,23	526,19
277,45	558,82
277,66	285,90
277,88	603,74
278,09	723,62
278,30	657,40
278,52	336,00
278,73	613,71
278,95	647,16
279,16	760,62
279,38	505,17
279,59	489,33
279,81	494,38
280,02	544,62
280,24	479,77
280,45	558,00
280,67	724,71
280,88	671,46
281,09	384,20
281,31	432,39
281,52	516,22
281,74	874,89
281,95	474,99
282,17	459,97
282,38	731,53
282,60	601,56
282,81	548,86
283,02	358,39
283,24	456,56
283,45	680,88
283,67	356,48
283,88	573,57
284,10	573,98
284,31	559,10
284,53	458,20
284,74	511,31
284,95	605,79
285,17	571,66
285,38	475,81
285,60	437,72
285,81	431,17
286,03	629,41
286,24	513,22
286,45	624,77
286,67	618,90
286,88	490,97
287,10	459,56
287,31	360,72
287,53	584,49
287,74	607,56
287,95	382,01
288,17	567,29
288,38	570,70
288,60	475,27
288,81	466,25
289,02	453,83
289,24	823,28
289,45	485,91
289,67	586,13
289,88	481,27
290,10	631,05
290,31	611,11
290,52	482,91
290,74	470,76
290,95	660,95
291,17	698,36
291,38	375,19
291,59	411,51
291,81	517,73
292,02	577,25
292,24	598,83
292,45	517,45
292,66	567,29
292,88	689,35
293,09	521,28
293,31	466,12
293,52	511,45
293,73	360,03
293,95	556,36
294,16	588,04
294,37	597,46
294,59	637,60
294,80	672,96
295,02	528,79
295,23	313,75
295,44	568,52
295,66	545,85
295,87	574,93
296,09	481,00
296,30	552,95
296,51	488,92
296,73	462,29
296,94	500,11
297,15	477,72
297,37	456,97
297,58	548,99
297,79	582,58
298,01	607,29
298,22	554,59
298,44	437,04
298,65	477,04
298,86	597,87
299,08	478,82
299,29	476,77
299,50	476,22
299,72	462,16
299,93	531,79
300,14	543,26
300,36	450,55
300,57	412,60
300,79	515,95
301,00	691,12
301,21	382,97
301,43	460,66
301,64	506,39
301,85	475,54
302,07	715,01
302,28	458,47
302,49	640,74
302,71	500,93
302,92	608,52
303,13	672,01
303,35	508,58
303,56	511,72
303,77	400,31
303,99	485,78
304,20	454,92
304,41	401,67
304,63	518,96
304,84	629,27
305,05	575,21
305,27	603,06
305,48	682,79
305,69	528,79
305,91	545,44
306,12	537,80
306,33	596,10
306,55	504,21
306,76	548,86
306,97	465,98
307,19	621,49
307,40	677,47
307,61	555,82
307,82	461,20
308,04	719,52
308,25	640,88
308,46	563,05
308,68	537,93
308,89	746,01
309,10	537,66
309,32	455,47
309,53	462,70
309,74	639,51
309,96	563,74
310,17	463,93
310,38	391,71
310,59	657,40
310,81	520,32
311,02	612,07
311,23	532,20
311,45	671,46
311,66	599,24
311,87	450,01
312,09	586,40
312,30	541,07
312,51	675,01
312,72	517,04
312,94	703,27
313,15	560,19
313,36	679,11
313,58	427,89
313,79	638,83
314,00	576,16
314,21	397,72
314,43	553,09
314,64	450,55
314,85	441,13
315,06	436,35
315,28	636,37
315,49	579,85
315,70	565,92
315,92	753,93
316,13	756,25
316,34	529,60
316,55	662,45
316,77	420,11
316,98	691,26
317,19	435,13
317,40	362,22
317,62	468,30
317,83	733,17
318,04	530,29
318,25	476,49
318,47	471,31
318,68	557,59
318,89	640,88
319,11	644,43
319,32	714,47
319,53	673,24
319,74	694,53
319,96	753,38
320,17	651,94
320,38	439,90
320,59	717,47
320,81	715,97
321,02	662,86
321,23	559,23
321,44	700,41
321,65	651,80
321,87	730,85
322,08	757,75
322,29	590,63
322,50	534,66
322,72	657,81
322,93	655,76
323,14	693,03
323,35	699,59
323,57	786,42
323,78	744,64
323,99	680,74
324,20	858,92
324,41	650,16
324,63	787,79
324,84	725,53
325,05	828,88
325,26	898,65
325,48	878,85
325,69	906,98
325,90	822,87
326,11	743,14
326,32	865,88
326,54	996,27
326,75	849,09
326,96	857,01
327,17	891,96
327,39	921,31
327,60	928,55
327,81	908,34
328,02	869,57
328,23	878,99
328,45	1133,35
328,66	1021,25
328,87	1105,22
329,08	1057,43
329,29	1192,60
329,51	1049,38
329,72	1043,78
329,93	1222,09
330,14	1153,42
330,35	1160,11
330,56	1109,73
330,78	1257,73
330,99	1272,20
331,20	1418,01
331,41	1387,98
331,62	1294,73
331,84	1513,04
332,05	1436,85
332,26	1490,38
332,47	1604,65
332,68	1467,03
332,90	1561,64
333,11	1307,70
333,32	1694,22
333,53	1636,60
333,74	1455,83
333,95	1709,51
334,17	1778,73
334,38	1843,04
334,59	1712,10
334,80	1812,45
335,01	1977,66
335,22	1938,20
335,44	1846,99
335,65	1742,41
335,86	1853,68
336,07	1834,84
336,28	1777,09
336,49	1844,40
336,71	1764,26
336,92	2244,03
337,13	2034,18
337,34	2105,31
337,55	2298,78
337,76	2343,56
337,97	2464,80
338,19	2433,40
338,40	2399,26
338,61	2695,81
338,82	2626,59
339,03	2710,96
339,24	2675,74
339,45	2643,93
339,67	2946,48
339,88	2938,43
340,09	2911,26
340,30	2811,86
340,51	3102,54
340,72	2900,33
340,93	2793,43
341,15	3131,48
341,36	3456,15
341,57	3119,06
341,78	3195,92
341,99	3400,86
342,20	3550,77
342,41	3402,90
342,62	3583,81
342,84	3265,55
343,05	3543,40
343,26	3161,52
343,47	3267,60
343,68	3006,42
343,89	3191,01
344,10	3432,53
344,31	3449,05
344,53	3522,23
344,74	3769,90
344,95	3800,62
345,16	3804,17
345,37	4037,64
345,58	4026,72
345,79	3901,93
346,00	4088,16
346,21	4109,04
346,42	4284,08
346,64	4242,30
346,85	4424,02
347,06	4405,73
347,27	4252,81
347,48	4641,24
347,69	4483,41
347,90	4570,52
348,11	4706,10
348,32	4398,49
348,53	4560,83
348,75	4717,15
348,96	4861,20
349,17	4934,38
349,38	5230,24
349,59	5342,47
349,80	5454,97
350,01	5894,46
350,22	5901,43
350,43	5524,19
350,64	5822,24
350,85	5859,51
351,06	5447,60
351,28	5640,52
351,49	5433,53
351,70	5782,92
351,91	5439,00
352,12	5835,76
352,33	5699,63
352,54	6144,04
352,75	6160,43
352,96	6455,47
353,17	6859,60
353,38	6831,34
353,59	7057,71
353,80	7382,93
354,01	7243,94
354,22	7036,27
354,44	7034,23
354,65	7248,03
354,86	7027,81
355,07	6906,43
355,28	6668,19
355,49	6792,29
355,70	6527,29
355,91	6512,27
356,12	6032,63
356,33	5970,24
356,54	6127,66
356,75	5995,91
356,96	6004,37
357,17	5976,66
357,38	5759,02
357,59	5517,09
357,80	5643,79
358,01	5843,81
358,22	6187,19
358,43	6564,70
358,64	7008,29
358,85	7408,19
359,07	7907,75
359,28	8084,29
359,49	7983,80
359,70	7742,14
359,91	7845,36
360,12	7378,29
360,33	7643,16
360,54	7370,37
360,75	7409,28
360,96	7547,17
361,17	7244,89
361,38	7582,54
361,59	8332,50
361,80	8403,63
362,01	8461,52
362,22	8668,92
362,43	8694,86
362,64	8770,22
362,85	8903,48
363,06	9162,07
363,27	9201,52
363,48	9328,91
363,69	9474,31
363,90	9128,89
364,11	9541,21
364,32	9375,46
364,53	9896,19
364,74	10401,50
364,95	10975,47
365,16	11141,91
365,37	11708,65
365,58	11446,64
365,79	11602,29
366,00	11833,85
366,21	11512,45
366,42	11572,25
366,63	11619,90
366,84	11221,50
367,05	11119,92
367,26	11084,84
367,47	10841,13
367,68	10704,32
367,89	10728,90
368,10	10260,32
368,31	9839,81
368,52	10653,40
368,73	11401,45
368,94	11482,82
369,15	11453,33
369,36	11775,55
369,57	11727,35
369,78	11468,22
369,99	11813,50
370,20	11820,06
370,40	11774,59
370,61	12109,09
370,82	12354,99
371,03	12243,03
371,24	12164,39
371,45	11931,74
371,66	11203,75
371,87	11176,31
372,08	11590,00
372,29	11190,92
372,50	10668,96
372,71	10609,43
372,92	10444,91
373,13	10042,56
373,34	10174,58
373,55	10207,08
373,76	10398,49
373,97	10242,85
374,18	10295,41
374,39	10664,05
374,60	11326,91
374,81	11617,99
375,01	11573,07
375,22	12298,74
375,43	12018,57
375,64	12275,25
375,85	11940,89
376,06	12373,55
376,27	12795,30
376,48	13408,32
376,69	13562,47
376,90	14134,53
377,11	15065,95
377,32	14867,71
377,53	15365,09
377,74	15215,86
377,94	14749,33
378,15	14555,05
378,36	13820,92
378,57	13201,07
378,78	12860,01
378,99	12618,90
379,20	13233,02
379,41	13078,33
379,62	13445,87
379,83	13635,38
380,04	14322,54
380,25	14268,33
380,45	13955,00
380,66	13711,97
380,87	12914,08
381,08	12282,35
381,29	11663,73
381,50	10943,12
381,71	10526,29
381,92	10225,64
382,13	9653,17
382,34	9141,86
382,55	9061,31
382,75	9155,79
382,96	9227,74
383,17	9395,53
383,38	10438,91
383,59	10904,48
383,80	11375,51
384,01	12224,05
384,22	13262,10
384,43	13106,45
384,63	12438,54
384,84	12712,56
385,05	12489,06
385,26	12663,41
385,47	12804,58
385,68	12926,10
385,89	13240,39
386,10	13067,82
386,30	13149,19
386,51	12718,71
386,72	13136,76
386,93	12783,42
387,14	12925,28
387,35	13317,26
387,56	13328,04
387,77	12968,56
387,97	13262,78
388,18	13816,14
388,39	14192,70
388,60	14836,99
388,81	15274,57
389,02	15954,22
389,23	16304,43
389,43	16289,13
389,64	16329,41
389,85	16185,37
390,06	16952,40
390,27	17409,65
390,48	17742,78
390,69	17497,16
390,89	18220,78
391,10	17532,52
391,31	16634,01
391,52	16039,69
391,73	15216,13
391,94	13647,80
392,14	12144,86
392,35	10898,06
392,56	10047,06
392,77	9831,21
392,98	9771,27
393,19	10329,82
393,39	11607,07
393,60	12581,90
393,81	14483,24
394,02	15215,04
394,23	16388,94
394,44	16872,53
394,64	17669,33
394,85	18344,48
395,06	17261,51
395,27	16342,79
395,48	15745,60
395,69	13795,25
395,89	12861,11
396,10	12294,09
396,31	11640,93
396,52	11992,50
396,73	13389,48
396,93	15312,66
397,14	16339,24
397,35	18928,97
397,56	19806,72
397,77	20896,11
397,97	22221,42
398,18	23385,48
398,39	22848,91
398,60	23722,03
398,81	23423,03
399,01	24380,79
399,22	23852,15
399,43	24583,13
399,64	24629,28
399,85	24574,26
400,05	24617,81
400,26	24729,91
400,47	25040,92
400,68	25763,31
400,89	25787,48
401,09	26358,18
401,30	26818,97
401,51	26486,38
401,72	26228,06
401,93	26952,63
402,13	26566,25
402,34	25934,79
402,55	26010,98
402,76	25837,86
402,96	26127,85
403,17	25157,79
403,38	25846,87
403,59	25176,23
403,80	26511,77
404,00	25422,26
404,21	25016,21
404,42	26040,61
404,63	25903,66
404,83	25948,58
405,04	24546,95
405,25	24997,51
405,46	24855,92
405,66	24221,87
405,87	24699,73
406,08	24526,06
406,29	25675,38
406,49	24895,38
406,70	25203,53
406,91	24677,07
407,12	26317,63
407,32	25548,41
407,53	26832,21
407,74	27013,12
407,95	26448,15
408,15	27300,11
408,36	26930,24
408,57	27077,29
408,78	26805,32
408,98	26238,99
409,19	24893,74
409,40	25366,14
409,61	24281,40
409,81	24776,60
410,02	25173,36
410,23	25956,37
410,44	27420,12
410,64	27496,98
410,85	27441,55
411,06	28173,22
411,26	28033,69
411,47	28238,08
411,68	28506,63
411,89	27070,19
412,09	27631,19
412,30	27482,78
412,51	26424,80
412,72	26810,78
412,92	27771,28
413,13	27396,22
413,34	27253,14
413,54	27194,29
413,75	27447,42
413,96	27236,21
414,17	26723,81
414,37	27323,45
414,58	26994,55
414,79	27750,39
414,99	27060,22
415,20	27804,73
415,41	27784,66
415,61	28536,94
415,82	28418,98
416,03	27140,64
416,24	27255,60
416,44	27649,76
416,65	27275,39
416,86	27407,28
417,06	26423,85
417,27	26361,18
417,48	26178,23
417,68	27018,85
417,89	27160,71
418,10	26275,71
418,30	27098,72
418,51	26718,89
418,72	26564,07
418,92	27698,91
419,13	26141,50
419,34	26614,31
419,55	26759,03
419,75	27561,70
419,96	27357,86
420,17	28763,86
420,37	28487,38
420,58	27505,59
420,79	27161,39
420,99	28526,84
421,20	28809,60
421,41	27613,31
421,61	27340,11
421,82	25595,24
422,03	26545,91
422,23	25778,47
422,44	26560,52
422,65	26836,86
422,85	26507,27
423,06	26990,45
423,26	27462,71
423,47	28367,51
423,68	27183,10
423,88	27858,79
424,09	27082,48
424,30	27301,61
424,50	27297,79
424,71	27364,82
424,92	27103,77
425,12	26915,63
425,33	28088,71
425,54	27950,40
425,74	27885,69
425,95	27198,12
426,15	27831,90
426,36	25805,77
426,57	27082,07
426,77	26082,38
426,98	26686,94
427,19	26116,52
427,39	27031,69
427,60	26264,38
427,81	26504,68
428,01	26157,20
428,22	27251,91
428,42	24744,10
428,63	25192,47
428,84	24379,57
429,04	23315,71
429,25	22419,66
429,45	21021,44
429,66	21223,10
429,87	20966,97
430,07	20544,54
430,28	21176,68
430,49	22299,38
430,69	24193,75
430,90	25269,34
431,10	26040,88
431,31	27218,32
431,52	28653,95
431,72	27677,21
431,93	27404,55
432,13	28609,44
432,34	29190,24
432,55	28016,90
432,75	28982,58
432,96	28337,74
433,16	27687,31
433,37	27589,28
433,58	27924,46
433,78	27926,78
433,99	26363,64
434,19	28232,07
434,40	28857,38
434,60	29501,54
434,81	29695,41
435,02	29853,38
435,22	30713,39
435,43	30303,11
435,63	30452,20
435,84	31708,56
436,05	31751,84
436,25	29848,87
436,46	31494,35
436,66	30898,11
436,87	30282,77
437,07	28867,62
437,28	28559,06
437,48	28595,79
437,69	27490,70
437,90	27857,70
438,10	27690,59
438,31	27851,42
438,51	29614,31
438,72	29021,22
438,92	29322,41
439,13	29697,46
439,34	29473,00
439,54	29586,59
439,75	29099,59
439,95	29320,22
440,16	30086,44
440,36	30639,52
440,57	30716,66
440,77	31855,74
440,98	31142,23
441,18	31219,51
441,39	31810,55
441,60	32866,21
441,80	32495,12
442,01	30781,65
442,21	32577,59
442,42	31157,11
442,62	31861,34
442,83	31508,27
443,03	32038,70
443,24	31855,33
443,44	31988,32
443,65	32406,51
443,85	31990,09
444,06	31843,46
444,26	32113,92
444,47	30994,23
444,67	31684,94
444,88	30644,30
445,09	29863,07
445,29	30654,41
445,50	30588,87
445,70	30012,44
445,91	30963,10
446,11	30515,83
446,32	31927,42
446,52	32399,82
446,73	32125,26
446,93	32840,95
447,14	32564,75
447,34	33064,05
447,55	31622,28
447,75	32635,88
447,96	33131,63
448,16	32372,11
448,37	32476,28
448,57	32257,28
448,78	32978,44
448,98	32683,12
449,19	33114,43
449,39	34368,06
449,60	33614,13
449,80	34916,09
450,01	35285,27
450,21	34830,62
450,42	35121,44
450,62	34433,86
450,83	34243,13
451,03	33946,04
451,23	34002,43
451,44	33726,22
451,64	33538,90
451,85	32456,35
452,05	32821,29
452,26	32246,09
452,46	31500,90
452,67	31794,31
452,87	31474,69
453,08	32472,32
453,28	31249,27
453,49	33669,43
453,69	32574,44
453,90	32751,94
454,10	33185,15
454,31	32952,23
454,51	32589,46
454,71	32785,25
454,92	32808,19
455,12	32827,44
455,33	33779,88
455,53	34880,18
455,74	35624,01
455,94	36027,18
456,15	36594,74
456,35	37954,05
456,55	36875,45
456,76	37630,61
456,96	38885,47
457,17	35685,72
457,37	39217,65
457,58	37407,10
457,78	38278,45
457,99	37382,67
458,19	35571,72
458,39	37259,79
458,60	38895,57
458,80	37910,09
459,01	37105,64
459,21	36786,98
459,42	38201,58
459,62	36812,65
459,82	39934,71
460,03	39154,30
460,23	39525,80
460,44	39763,63
460,64	37499,67
460,85	40650,95
461,05	38575,68
461,25	38589,47
461,46	41453,75
461,66	40450,11
461,87	39518,97
462,07	40036,83
462,27	38774,06
462,48	38473,82
462,68	39408,65
462,89	39204,95
463,09	38559,97
463,29	39410,56
463,50	38669,47
463,70	39020,49
463,91	37570,53
464,11	37997,88
464,31	38650,77
464,52	39131,77
464,72	40395,09
464,93	39735,37
465,13	40641,53
465,33	39453,84
465,54	38865,94
465,74	38619,23
465,95	39226,66
466,15	38510,28
466,35	39431,59
466,56	39488,52
466,76	40144,42
466,96	39403,60
467,17	40081,89
467,37	40252,14
467,58	40393,73
467,78	40454,62
467,98	41382,76
468,19	40387,45
468,39	41977,08
468,59	42353,63
468,80	41079,93
469,00	40975,35
469,21	40568,49
469,41	40615,73
469,61	41719,03
469,82	40018,13
470,02	41806,41
470,22	42638,98
470,43	42358,27
470,63	42102,96
470,83	44796,45
471,04	43787,21
471,24	44331,15
471,45	44465,50
471,65	45684,18
471,85	44174,69
472,06	45170,00
472,26	44956,60
472,46	44747,16
472,67	45379,16
472,87	44958,10
473,07	45245,36
473,28	44798,50
473,48	46568,22
473,68	46673,07
473,89	46875,14
474,09	47513,69
474,29	46704,47
474,50	47648,72
474,70	47030,10
474,90	47933,25
475,11	47651,04
475,31	47485,02
475,51	47028,60
475,72	47066,42
475,92	46714,03
476,12	46367,51
476,33	48412,89
476,53	48823,17
476,73	49539,00
476,93	50458,95
477,14	50254,56
477,34	50396,55
477,54	51089,17
477,75	50960,29
477,95	50842,60
478,15	51128,09
478,36	51811,97
478,56	51709,16
478,76	52724,82
478,97	52733,28
479,17	52452,17
479,37	52504,59
479,57	52710,35
479,78	52386,22
479,98	53096,32
480,18	53742,66
480,39	53923,43
480,59	54983,73
480,79	54988,10
480,99	54965,98
481,20	55757,18
481,40	55628,57
481,60	55609,86
481,81	55370,25
482,01	55545,96
482,21	55495,99
482,41	55738,75
482,62	55343,76
482,82	55778,20
483,02	56882,06
483,23	56085,54
483,43	56807,24
483,63	55775,06
483,83	56108,88
484,04	57605,26
484,24	56103,69
484,44	55954,19
484,64	54458,49
484,85	53061,64
485,05	51538,50
485,25	50553,97
485,45	49193,03
485,66	49583,37
485,86	49179,10
486,06	50242,54
486,26	51458,08
486,47	52305,53
486,67	53417,31
486,87	54555,98
487,07	55420,49
487,28	55102,92
487,48	55923,20
487,68	57161,67
487,88	56419,08
488,09	56609,00
488,29	56396,55
488,49	57841,46
488,69	57822,49
488,90	59074,07
489,10	59022,73
489,30	59586,47
489,50	59854,62
489,71	60482,66
489,91	60444,30
490,11	60327,83
490,31	60035,93
490,52	59831,41
490,72	59105,47
490,92	59617,33
491,12	58522,21
491,32	57965,30
491,53	58110,84
491,73	58253,11
491,93	59067,24
492,13	59699,93
492,33	59875,23
492,54	59691,74
492,74	60543,14
492,94	60036,89
493,14	60552,29
493,35	60476,93
493,55	60810,34
493,75	61547,33
493,95	61498,86
494,15	61658,47
494,36	62753,04
494,56	61595,25
494,76	61575,32
494,96	61394,96
495,16	61273,72
495,37	61584,33
495,57	61573,96
495,77	61613,69
495,97	61644,13
496,17	62561,35
496,37	62045,53
496,58	62561,90
496,78	61203,55
496,98	61508,83
497,18	61008,99
497,38	60607,72
497,59	60569,90
497,79	59599,17
497,99	59665,52
498,19	60219,97
498,39	60349,68
498,59	60999,16
498,80	60722,68
499,00	60542,05
499,20	60305,17
499,40	59008,53
499,60	59294,29
499,80	58930,30
500,01	58372,84
500,21	57730,46
500,41	57407,43
500,61	57541,50
500,81	56582,51
501,01	56907,32
501,22	56344,81
501,42	56760,27
501,62	56779,11
501,82	57025,55
502,02	57378,21
502,22	57242,77
502,42	57180,38
502,63	57642,81
502,83	56353,14
503,03	55964,84
503,23	55532,72
503,43	54785,89
503,63	54795,04
503,83	55448,48
504,04	54663,56
504,24	55261,30
504,44	55134,46
504,64	55996,11
504,84	56290,20
505,04	55943,95
505,24	56545,51
505,44	56429,46
505,65	56269,72
505,85	55986,96
506,05	55325,47
506,25	55124,36
506,45	54516,66
506,65	53897,08
506,85	53809,01
507,05	53932,98
507,26	53385,36
507,46	53434,10
507,66	53663,61
507,86	53610,91
508,06	54691,28
508,26	54652,09
508,46	54669,84
508,66	55044,62
508,86	55212,69
509,06	54932,94
509,27	55120,40
509,47	55013,63
509,67	55126,54
509,87	55188,66
510,07	55636,21
510,27	56156,80
510,47	56387,13
510,67	56768,33
510,87	57194,85
511,07	57536,73
511,28	57482,93
511,48	56594,25
511,68	56886,97
511,88	56556,43
512,08	56054,13
512,28	55986,82
512,48	55795,68
512,68	55741,89
512,88	55526,85
513,08	55766,33
513,28	55402,61
513,48	55413,12
513,68	55847,56
513,89	55682,77
514,09	55040,94
514,29	56034,88
514,49	56166,36
514,69	56152,16
514,89	56634,94
515,09	56966,71
515,29	56399,28
515,49	55208,73
515,69	53958,38
515,89	52829,13
516,09	51531,26
516,29	50338,39
516,49	50283,64
516,69	51222,29
516,89	51261,48
517,09	51860,58
517,29	51950,96
517,50	51803,78
517,70	51823,17
517,90	52226,21
518,10	52225,66
518,30	54020,77
518,50	53550,15
518,70	54669,84
518,90	56225,48
519,10	56407,48
519,30	56721,23
519,50	56943,22
519,70	57294,52
519,90	57336,30
520,10	57703,29
520,30	57514,74
520,50	57447,16
520,70	58372,71
520,90	58352,64
521,10	58317,96
521,30	58285,33
521,50	59107,93
521,70	58653,28
521,90	58162,59
522,10	58320,55
522,30	57362,38
522,50	57639,26
522,70	57756,95
522,90	58630,75
523,10	59094,41
523,30	59758,09
523,50	59836,19
523,70	60285,10
523,90	60107,88
524,10	60037,84
524,30	59386,04
524,50	59622,79
524,70	60017,64
524,90	59438,88
525,10	59487,08
525,30	58219,11
525,50	57709,17
525,70	56446,66
525,90	55123,13
526,10	54387,63
526,30	54542,60
526,50	54606,49
526,70	55105,24
526,90	55716,63
527,10	56046,21
527,30	56872,50
527,50	57994,52
527,70	58248,33
527,90	58960,75
528,10	59242,00
528,30	59944,32
528,50	59976,68
528,70	59721,77
528,90	59825,67
529,10	59554,52
529,30	59093,18
529,50	59622,79
529,70	59569,54
529,90	59975,86
530,10	60384,09
530,29	60302,17
530,49	60771,42
530,69	60591,48
530,89	60531,68
531,09	59641,08
531,29	59093,59
531,49	58601,53
531,69	57610,73
531,89	57192,94
532,09	56819,53
532,29	56407,07
532,49	56688,05
532,69	57131,77
532,89	57228,17
533,09	57308,04
533,29	57536,73
533,49	57676,94
533,68	57677,90
533,88	58586,38
534,08	58312,22
534,28	58226,89
534,48	58665,98
534,68	59059,19
534,88	59018,91
535,08	59703,89
535,28	59927,12
535,48	59407,75
535,68	58583,92
535,88	58378,03
536,08	57667,11
536,27	57411,66
536,47	57058,73
536,67	57877,37
536,87	57774,97
537,07	57726,10
537,27	58050,08
537,47	58049,26
537,67	57467,10
537,87	57922,70
538,07	58168,46
538,27	57364,97
538,46	57464,91
538,66	56680,54
538,86	55694,78
539,06	56130,73
539,26	55359,19
539,46	54912,87
539,66	54724,32
539,86	54268,03
540,06	54206,05
540,25	54293,97
540,45	54077,43
540,65	54383,40
540,85	54992,47
541,05	55397,42
541,25	55270,58
541,45	55136,10
541,65	55235,08
541,85	54991,92
542,04	54934,99
542,24	54929,25
542,44	54671,75
542,64	54649,91
542,84	54697,42
543,04	54658,24
543,24	54860,44
543,43	55217,61
543,63	55369,02
543,83	55036,70
544,03	54689,91
544,23	54771,70
544,43	54583,42
544,63	54690,32
544,82	55104,01
545,02	54146,25
545,22	54790,13
545,42	53777,61
545,62	54509,56
545,82	54280,59
546,02	54081,67
546,21	54124,54
546,41	53690,23
546,61	53146,02
546,81	53293,74
547,01	52786,12
547,21	53058,91
547,40	52687,96
547,60	52686,45
547,80	52730,96
548,00	53057,41
548,20	53099,46
548,40	53000,89
548,59	53256,88
548,79	53360,10
548,99	53533,49
549,19	52938,22
549,39	52636,89
549,59	53134,00
549,78	52248,46
549,98	52501,45
550,18	52062,78
550,38	52189,21
550,58	52117,66
550,77	52030,42
550,97	52557,30
551,17	51996,42
551,37	52458,31
551,57	52133,37
551,76	51899,62
551,96	51371,66
552,16	51057,77
552,36	51370,02
552,56	51215,19
552,75	51165,36
552,95	51190,89
553,15	51527,99
553,35	51404,70
553,55	50892,98
553,74	51716,40
553,94	50969,98
554,14	51126,17
554,34	51065,83
554,54	51257,11
554,73	51142,01
554,93	51125,08
555,13	51032,79
555,33	50486,12
555,53	50226,43
555,72	49831,45
555,92	49708,30
556,12	49190,98
556,32	48880,65
556,51	49047,35
556,71	49077,93
556,91	48713,26
557,11	48650,45
557,30	48859,48
557,50	48565,26
557,70	47689,27
557,90	47648,86
558,10	47198,85
558,29	46566,17
558,49	47070,92
558,69	46526,71
558,89	46507,60
559,08	46672,53
559,28	46516,33
559,48	46535,99
559,68	47035,70
559,87	47378,39
560,07	47397,78
560,27	47723,13
560,47	47339,89
560,66	47251,83
560,86	46817,25
561,06	46203,95
561,25	46412,98
561,45	46348,26
561,65	46384,31
561,85	46226,20
562,04	46365,06
562,24	46371,34
562,44	46469,64
562,64	46229,34
562,83	46514,70
563,03	45952,32
563,23	45787,94
563,42	45489,48
563,62	45733,46
563,82	45324,83
564,02	45662,33
564,21	45324,96
564,41	45363,87
564,61	44917,69
564,80	44670,02
565,00	44280,63
565,20	44026,82
565,40	44011,94
565,59	43764,96
565,79	44240,77
565,99	44433,82
566,18	44326,65
566,38	44353,13
566,58	44063,00
566,78	44306,17
566,97	44378,53
567,17	44445,84
567,37	43796,77
567,56	43458,85
567,76	43054,58
567,96	42885,69
568,15	42396,37
568,35	42506,00
568,55	42561,16
568,74	42203,58
568,94	42355,82
569,14	42103,51
569,33	41644,90
569,53	41499,63
569,73	41443,24
569,92	41105,19
570,12	40804,55
570,32	40677,30
570,52	40175,14
570,71	40526,98
570,91	40816,02
571,11	41013,03
571,30	41021,91
571,50	41402,42
571,70	41745,66
571,89	41415,53
572,09	41472,19
572,28	41562,84
572,48	41476,69
572,68	41468,23
572,87	41700,60
573,07	41828,81
573,27	41331,15
573,46	41443,79
573,66	41221,52
573,86	40914,46
574,05	41047,44
574,25	40611,49
574,45	40167,90
574,64	40449,57
574,84	40449,98
575,04	40129,54
575,23	40237,81
575,43	40212,82
575,62	40413,25
575,82	39917,51
576,02	39769,91
576,21	40322,46
576,41	40438,78
576,61	40419,39
576,80	40129,95
577,00	39860,30
577,19	39842,96
577,39	39862,76
577,59	39599,93
577,78	39481,97
577,98	39642,12
578,18	39414,11
578,37	39596,93
578,57	40035,47
578,76	40006,66
578,96	39826,30
579,16	40102,78
579,35	40857,39
579,55	40009,80
579,74	40445,47
579,94	40450,66
580,14	41135,91
580,33	41008,94
580,53	41096,73
580,72	41075,43
580,92	41427,81
581,12	41066,96
581,31	41363,23
581,51	41744,70
581,70	41573,49
581,90	41925,47
582,10	41948,27
582,29	42197,17
582,49	41938,30
582,68	41971,48
582,88	42153,61
583,07	42088,22
583,27	42022,00
583,47	42449,07
583,66	42319,23
583,86	41616,64
584,05	41802,46
584,25	41265,34
584,44	41605,99
584,64	40900,26
584,84	40942,31
585,03	40621,73
585,23	40255,15
585,42	40457,08
585,62	40168,18
585,81	40378,84
586,01	40568,62
586,20	40652,59
586,40	40701,06
586,60	40457,49
586,79	40554,15
586,99	40086,53
587,18	39734,28
587,38	39189,79
587,57	38435,87
587,77	37562,75
587,96	36995,33
588,16	35823,07
588,35	34944,90
588,55	34573,94
588,75	34281,90
588,94	33971,30
589,14	34068,64
589,33	34160,94
589,53	35457,58
589,72	35077,75
589,92	36077,97
590,11	35957,83
590,31	36539,04
590,50	36606,62
590,70	36336,84
590,89	36607,17
591,09	36196,21
591,28	36216,96
591,48	36226,38
591,67	36038,24
591,87	36210,82
592,06	36461,08
592,26	36541,36
592,45	36555,83
592,65	37040,38
592,84	36576,99
593,04	36518,56
593,23	36234,44
593,43	36084,39
593,62	35671,25
593,82	35402,01
594,01	35039,52
594,21	35705,65
594,40	35387,67
594,60	35181,78
594,79	35687,90
594,99	35651,72
595,18	35953,32
595,38	36093,26
595,57	35901,17
595,77	36471,32
595,96	36382,16
596,16	36172,86
596,35	35831,53
596,55	35984,04
596,74	36182,56
596,94	35784,29
597,13	35798,63
597,33	35651,59
597,52	35601,75
597,72	35476,28
597,91	35712,75
598,11	35425,35
598,30	35559,84
598,50	35836,04
598,69	35527,21
598,88	35552,33
599,08	35350,40
599,27	35733,23
599,47	35129,63
599,66	35568,98
599,86	35265,20
600,05	35395,18
600,25	35319,00
600,44	35086,21
600,64	35228,34
600,83	34922,24
601,02	34887,56
601,22	34666,10
601,41	34541,45
601,61	34718,53
601,80	34603,57
602,00	34814,24
602,19	34548,28
602,38	34708,02
602,58	34797,04
602,77	34990,23
602,97	35029,14
603,16	35444,60
603,36	34730,55
603,55	35534,99
603,74	34768,23
603,94	34962,24
604,13	35040,34
604,33	35032,28
604,52	34583,78
604,72	34564,39
604,91	34370,79
605,10	34649,58
605,30	34017,99
605,49	34244,22
605,69	34338,29
605,88	33887,88
606,07	34367,51
606,27	34326,82
606,46	33976,07
606,66	33938,67
606,85	33332,60
607,04	33548,60
607,24	33304,48
607,43	33405,24
607,63	33014,21
607,82	33016,94
608,01	33044,93
608,21	32767,77
608,40	32885,46
608,60	32624,01
608,79	32564,89
608,98	32312,30
609,18	32732,55
609,37	32299,47
609,57	31900,66
609,76	32164,71
609,95	32066,00
610,15	32405,28
610,34	32297,42
610,53	32188,20
610,73	32143,55
610,92	32257,83
611,11	31998,42
611,31	32143,01
611,50	31799,08
611,70	31904,76
611,89	31961,15
612,08	31932,07
612,28	31779,70
612,47	31917,05
612,66	31546,09
612,86	31789,66
613,05	31461,72
613,24	31350,85
613,44	31422,94
613,63	31524,25
613,82	31727,54
614,02	31811,92
614,21	31422,53
614,41	31736,83
614,60	32129,76
614,79	31557,29
614,99	31469,50
615,18	31426,08
615,37	31201,62
615,57	31444,51
615,76	30951,77
615,95	30825,62
616,15	30945,35
616,34	31485,88
616,53	31624,73
616,73	31847,42
616,92	31777,51
617,11	31952,54
617,30	31934,52
617,50	32173,59
617,69	32455,25
617,88	32676,71
618,08	32402,96
618,27	32620,05
618,46	32463,99
618,66	32460,71
618,85	32493,21
619,04	32787,02
619,24	33304,75
619,43	33309,39
619,62	33046,43
619,82	33180,64
620,01	33039,33
620,20	33102,14
620,39	32878,64
620,59	33021,18
620,78	32974,07
620,97	32977,49
621,17	32848,05
621,36	33098,86
621,55	32815,70
621,74	32905,67
621,94	32510,14
622,13	32852,97
622,32	32422,62
622,52	32335,38
622,71	32522,97
622,90	32448,15
623,09	32101,23
623,29	32216,73
623,48	32116,25
623,67	31990,50
623,86	31903,94
624,06	31531,89
624,25	31821,34
624,44	31802,63
624,64	31646,17
624,83	31363,96
625,02	31083,80
625,21	31560,29
625,41	31394,68
625,60	31625,42
625,79	31268,93
625,98	31447,38
626,18	31968,79
626,37	31243,54
626,56	30678,30
626,75	30639,66
626,95	29751,39
627,14	29339,75
627,33	29172,77
627,52	29205,54
627,72	29154,06
627,91	29461,53
628,10	29464,67
628,29	29735,55
628,49	29379,61
628,68	29427,67
628,87	29306,71
629,06	29872,08
629,25	29385,07
629,45	29256,33
629,64	29573,62
629,83	29820,75
630,02	29377,84
630,22	29654,31
630,41	29645,58
630,60	29603,25
630,79	29279,95
630,98	29288,96
631,18	29000,74
631,37	29250,46
631,56	29492,66
631,75	29962,06
631,94	29921,78
632,14	29943,76
632,33	29729,41
632,52	29801,77
632,71	29914,95
632,90	29870,99
633,10	29944,44
633,29	29712,20
633,48	29715,21
633,67	29809,69
633,86	30065,41
634,06	29890,79
634,25	29969,29
634,44	30336,01
634,63	29886,14
634,82	29970,79
635,02	29554,24
635,21	29748,25
635,40	29743,20
635,59	29664,28
635,78	29796,58
635,97	29831,26
636,17	29442,01
636,36	30092,44
636,55	30040,83
636,74	30375,61
636,93	29808,32
637,12	30221,87
637,32	30332,19
637,51	29949,90
637,70	30188,70
637,89	30136,13
638,08	30065,00
638,27	30334,38
638,47	29999,06
638,66	29900,07
638,85	29275,85
639,04	29648,31
639,23	29333,60
639,42	29479,28
639,62	29441,46
639,81	29284,45
640,00	29256,33
640,19	29130,58
640,38	28984,90
640,57	29117,34
640,76	28975,89
640,95	29043,61
641,15	28832,81
641,34	29073,78
641,53	28878,95
641,72	29112,01
641,91	29188,61
642,10	28875,40
642,29	29129,08
642,49	28945,85
642,68	28544,32
642,87	29006,61
643,06	28887,96
643,25	28841,82
643,44	28596,61
643,63	28735,87
643,82	28711,98
644,01	28896,29
644,21	28618,86
644,40	28618,45
644,59	28147,97
644,78	28342,25
644,97	28117,66
645,16	28012,94
645,35	27658,91
645,54	27704,65
645,73	27233,07
645,92	27450,02
646,12	27022,67
646,31	26766,82
646,50	26627,14
646,69	26641,48
646,88	26152,01
647,07	26498,67
647,26	26001,28
647,45	25918,41
647,64	25964,01
647,83	26040,88
648,02	26127,85
648,22	25997,60
648,41	25761,54
648,60	25386,89
648,79	25438,37
648,98	25784,88
649,17	25514,41
649,36	25646,71
649,55	26107,37
649,74	26362,41
649,93	26194,48
650,12	26676,43
650,31	26465,76
650,50	26099,18
650,69	25976,44
650,88	26079,38
651,08	25333,24
651,27	25826,66
651,46	25848,78
651,65	25678,25
651,84	25678,11
652,03	26069,41
652,22	25839,49
652,41	25890,28
652,60	26395,45
652,79	26338,93
652,98	26079,93
653,17	26067,50
653,36	25893,42
653,55	25784,47
653,74	25642,62
653,93	25683,44
654,12	25042,97
654,31	25007,34
654,50	25081,06
654,69	24586,27
654,88	23995,09
655,07	23250,86
655,26	22304,29
655,45	21885,14
655,64	21428,17
655,83	21615,90
656,02	21923,10
656,21	22101,95
656,40	22130,35
656,59	23034,05
656,78	22914,86
656,97	23487,06
657,17	24062,13
657,36	24117,29
657,55	24248,36
657,74	24585,05
657,93	24682,67
658,12	24694,68
658,31	24697,00
658,50	24855,38
658,69	24404,69
658,87	25054,85
659,06	24765,13
659,25	24849,51
659,44	24822,88
659,63	25116,02
659,82	25239,17
660,01	25035,19
660,20	24975,25
660,39	25110,01
660,58	25047,89
660,77	25082,16
660,96	25208,99
661,15	24894,56
661,34	25171,04
661,53	25048,16
661,72	24993,41
661,91	25048,43
662,10	24724,17
662,29	24646,08
662,48	24485,79
662,67	24680,48
662,86	24234,57
663,05	24362,50
663,24	24610,71
663,43	24339,29
663,62	24501,90
663,81	24200,85
664,00	24448,10
664,19	24141,18
664,38	24347,62
664,57	24167,67
664,76	24317,17
664,94	24228,56
665,13	23997,28
665,32	23864,16
665,51	24038,78
665,70	23720,12
665,89	23895,02
666,08	23825,11
666,27	23702,51
666,46	23751,93
666,65	23592,46
666,84	23458,94
667,03	23571,16
667,22	23370,33
667,41	23614,31
667,60	23486,65
667,78	23531,30
667,97	23604,75
668,16	23737,87
668,35	23447,60
668,54	23207,17
668,73	23294,01
668,92	23038,69
669,11	23069,14
669,30	23021,90
669,49	23042,65
669,68	23109,28
669,86	22894,65
670,05	22833,21
670,24	22666,37
670,43	22505,95
670,62	22896,97
670,81	22365,32
671,00	22429,08
671,19	22525,06
671,38	22170,63
671,57	22341,97
671,75	22300,47
671,94	22189,88
672,13	22344,16
672,32	22243,94
672,51	22177,04
672,70	22511,96
672,89	21999,69
673,08	22047,48
673,26	22139,63
673,45	21820,70
673,64	22066,04
673,83	21791,62
674,02	21821,93
674,21	22088,16
674,40	22026,72
674,59	21864,52
674,77	21979,07
674,96	21876,68
675,15	21751,20
675,34	21678,84
675,53	21880,50
675,72	21366,73
675,91	21611,40
676,09	21603,75
676,28	21835,17
676,47	21205,76
676,66	21082,88
676,85	21484,15
677,04	21585,45
677,22	21331,78
677,41	21189,65
677,60	21345,71
677,79	20991,82
677,98	20874,81
678,17	20807,91
678,36	21077,42
678,54	20837,13
678,73	20831,53
678,92	20690,22
679,11	20874,26
679,30	20780,19
679,48	20510,95
679,67	20746,47
679,86	20710,43
680,05	20658,68
680,24	20343,16
680,43	20403,23
680,61	20206,76
680,80	20283,36
680,99	20317,76
681,18	20297,42
681,37	20170,85
681,55	20586,59
681,74	20152,01
681,93	20132,49
682,12	19920,73
682,31	20019,71
682,49	19946,26
682,68	20004,42
682,87	19650,81
683,06	19717,43
683,25	19551,00
683,43	19806,59
683,62	19282,44
683,81	19767,81
684,00	19649,30
684,19	19367,09
684,37	19264,29
684,56	19034,64
684,75	19317,81
684,94	19065,36
685,12	19229,74
685,31	18895,65
685,50	18493,57
685,69	17628,10
685,88	16475,77
686,06	15318,40
686,25	14078,15
686,44	13241,76
686,63	12456,43
686,81	12621,77
687,00	12524,01
687,19	12893,60
687,38	13261,14
687,56	13332,41
687,75	13711,15
687,94	13632,24
688,13	13295,00
688,31	13508,54
688,50	13451,47
688,69	13505,40
688,88	13713,88
689,06	13927,28
689,25	13978,48
689,44	14024,35
689,63	14154,06
689,81	14383,43
690,00	14544,67
690,19	14884,23
690,38	14946,21
690,56	14955,09
690,75	15474,86
690,94	15282,49
691,13	15513,64
691,31	15698,77
691,50	15672,83
691,69	15610,57
691,87	15521,56
692,06	15629,96
692,25	15569,89
692,44	15358,67
692,62	15280,71
692,81	15690,85
693,00	15130,80
693,18	15097,63
693,37	15132,71
693,56	14774,59
693,75	14875,76
693,93	15216,13
694,12	15135,31
694,31	15067,32
694,49	14846,41
694,68	15164,12
694,87	15010,79
695,05	15161,39
695,24	15314,98
695,43	15279,49
695,62	15562,10
695,80	15852,92
695,99	16049,66
696,18	16089,12
696,36	16453,65
696,55	16225,92
696,74	15968,83
696,92	16370,10
697,11	16084,34
697,30	16244,49
697,48	15898,24
697,67	15832,57
697,86	15628,60
698,04	15432,40
698,23	15288,09
698,42	15304,20
698,60	15050,52
698,79	15183,37
698,98	15020,21
699,16	14885,32
699,35	14792,75
699,54	14854,74
699,72	14597,38
699,91	15067,45
700,10	14569,93
700,28	14648,57
700,47	14886,96
700,66	14538,67
700,84	14522,56
701,03	14374,28
701,21	14520,92
701,40	14376,06
701,59	14439,95
701,77	14349,30
701,96	14441,59
702,15	14716,16
702,33	14662,77
702,52	14659,36
702,71	14970,79
702,89	14903,89
703,08	14923,14
703,26	14906,75
703,45	15281,12
703,64	15104,18
703,82	15042,19
704,01	14967,24
704,20	14913,58
704,38	14903,34
704,57	14675,33
704,75	14611,16
704,94	14703,60
705,13	14824,97
705,31	14887,23
705,50	14758,76
705,68	14775,55
705,87	14964,78
706,06	14835,08
706,24	14917,95
706,43	14657,18
706,61	14897,20
706,80	14651,58
706,99	14975,29
707,17	14868,12
707,36	14958,91
707,54	14685,98
707,73	14798,49
707,92	14799,17
708,10	14597,78
708,29	14493,34
708,47	14788,52
708,66	14760,53
708,84	14689,67
709,03	14720,12
709,22	14619,49
709,40	14538,80
709,59	14713,56
709,77	14781,15
709,96	14762,71
710,14	14412,10
710,33	14684,76
710,52	14542,90
710,70	14793,02
710,89	14376,60
711,07	14463,71
711,26	14589,32
711,44	14528,15
711,63	14346,84
711,81	14346,16
712,00	14185,87
712,19	14239,53
712,37	14374,42
712,56	14262,33
712,74	14040,19
712,93	14157,88
713,11	14030,63
713,30	13983,39
713,48	13951,99
713,67	13921,00
713,85	13702,69
714,04	13743,51
714,22	13696,95
714,41	13607,93
714,59	13434,54
714,78	13449,42
714,97	13359,45
715,15	13103,18
715,34	13147,14
715,52	12720,34
715,71	12501,07
715,89	11901,29
716,08	11552,86
716,26	10925,78
716,45	10508,81
716,63	10353,71
716,82	10003,78
717,00	9764,99
717,19	9770,72
717,37	9486,05
717,56	9238,52
717,74	9028,95
717,93	8974,06
718,11	8870,71
718,30	8464,94
718,48	8722,98
718,67	8715,75
718,85	8489,24
719,04	8331,68
719,22	8145,73
719,41	8394,76
719,59	8503,03
719,78	8363,09
719,96	8701,00
720,15	9047,65
720,33	9637,74
720,52	9779,32
720,70	10102,49
720,88	10487,51
721,07	10555,78
721,25	10695,18
721,44	10767,40
721,62	10876,63
721,81	10768,49
721,99	10532,84
722,18	10499,66
722,36	10283,26
722,55	10096,08
722,73	9622,18
722,92	9565,79
723,10	9318,80
723,28	9353,35
723,47	9219,00
723,65	9248,90
723,84	9061,44
724,02	8886,41
724,21	9010,79
724,39	8763,53
724,58	8791,66
724,76	9048,34
724,94	8727,76
725,13	8975,70
725,31	8895,28
725,50	9094,89
725,68	8960,68
725,87	8893,24
726,05	9005,87
726,23	9012,84
726,42	8905,11
726,60	8844,63
726,79	8512,04
726,97	8696,36
727,16	8752,61
727,34	8775,68
727,52	8718,34
727,71	9041,65
727,89	8740,05
728,08	8803,40
728,26	8656,08
728,44	8667,82
728,63	8820,60
728,81	8734,18
729,00	8739,50
729,18	8959,45
729,36	8849,82
729,55	8908,80
729,73	8829,61
729,92	8822,65
730,10	8610,75
730,28	8706,32
730,47	8734,31
730,65	8773,91
730,84	8998,09
731,02	8884,91
731,20	9282,21
731,39	9327,54
731,57	9325,90
731,75	9873,94
731,94	9673,79
732,12	9910,12
732,31	9731,26
732,49	9855,51
732,67	9952,72
732,86	10015,11
733,04	10107,82
733,22	10290,36
733,41	10035,18
733,59	10451,19
733,78	10328,59
733,96	10249,81
734,14	10128,02
734,33	10047,61
734,51	10228,65
734,69	10157,38
734,88	9966,78
735,06	10037,50
735,24	9955,31
735,43	10135,26
735,61	9743,69
735,79	10021,80
735,98	9862,47
736,16	10156,01
736,34	9898,38
736,53	10077,10
736,71	10210,35
736,89	10070,41
737,08	9991,08
737,26	10093,76
737,44	10013,20
737,63	10030,95
737,81	9826,84
737,99	9954,49
738,18	9997,77
738,36	10067,00
738,54	9810,73
738,73	9997,09
738,91	10034,64
739,09	9984,53
739,28	9877,49
739,46	9952,58
739,64	10053,34
739,82	10167,76
740,01	9851,96
740,19	10374,74
740,37	10012,93
740,56	9892,92
740,74	9814,96
740,92	9901,11
741,11	9771,27
741,29	9845,95
741,47	10058,94
741,65	9777,41
741,84	9840,76
742,02	10102,49
742,20	9904,25
742,39	9967,33
742,57	9913,40
742,75	9920,36
742,93	9858,38
743,12	9919,27
743,30	9791,75
743,48	9918,86
743,67	9778,10
743,85	9677,61
744,03	9969,10
744,21	9657,54
744,40	9536,43
744,58	9763,76
744,76	9650,71
744,94	9644,43
745,13	9653,99
745,31	9620,40
745,49	9536,43
745,67	9474,72
745,86	9648,12
746,04	9606,75
746,22	9583,26
746,40	9401,95
746,59	9408,64
746,77	9579,31
746,95	9605,38
747,13	9528,24
747,32	9293,41
747,50	9450,97
747,68	9317,85
747,86	9246,03
748,05	9398,67
748,23	9283,72
748,41	9188,96
748,59	9067,72
748,77	8972,97
748,96	8988,94
749,14	8840,53
749,32	9288,08
749,50	9074,82
749,69	9127,52
749,87	8906,62
750,05	8904,70
750,23	8725,03
750,41	8629,32
750,60	8869,21
750,78	8650,76
750,96	8703,59
751,14	8823,06
751,32	8656,76
751,51	8630,41
751,69	8601,61
751,87	8368,14
752,05	8766,81
752,23	8677,65
752,42	8494,16
752,60	8725,58
752,78	8479,27
752,96	8550,82
753,14	8531,70
753,33	8549,45
753,51	8575,25
753,69	8544,94
753,87	8554,23
754,05	8723,39
754,23	8415,24
754,42	8447,46
754,60	8431,49
754,78	8704,28
754,96	8289,49
755,14	8430,94
755,32	8450,60
755,51	8412,78
755,69	8387,39
755,87	8369,64
756,05	8218,64
756,23	8408,14
756,41	8502,35
756,60	8473,40
756,78	8437,90
756,96	8339,33
757,14	8513,82
757,32	8295,23
757,50	8445,41
757,68	8250,99
757,87	8259,32
758,05	8184,23
758,23	7850,27
758,41	7660,36
758,59	6818,37
758,77	6061,30
758,95	5103,95
759,14	4151,78
759,32	3481,96
759,50	2673,96
759,68	2140,81
759,86	1889,32
760,04	1674,83
760,22	1601,10
760,40	1884,40
760,59	1833,21
760,77	2251,13
760,95	2412,51
761,13	2654,58
761,31	3050,65
761,49	2965,05
761,67	3035,77
761,85	2493,47
762,03	2332,91
762,22	2447,05
762,40	2261,64
762,58	2067,77
762,76	2123,20
762,94	2267,92
763,12	2421,79
763,30	2642,56
763,48	2727,21
763,66	2739,77
763,84	2930,37
764,02	3186,23
764,21	3383,79
764,39	4008,28
764,57	3916,26
764,75	4189,32
764,93	4473,58
765,11	4616,67
765,29	4931,37
765,47	5012,34
765,65	5457,97
765,83	5681,61
766,01	5914,94
766,19	6236,75
766,37	6716,52
766,56	6678,43
766,74	6860,97
766,92	6893,05
767,10	7090,89
767,28	7315,21
767,46	7392,07
767,64	7424,98
767,82	7678,93
768,00	7544,85
768,18	7631,82
768,36	7820,37
768,54	7915,40
768,72	7853,28
768,90	7649,71
769,08	7608,20
769,26	7822,42
769,44	7791,70
769,62	7997,59
769,80	8080,47
769,98	8053,43
770,16	7821,47
770,34	7872,80
770,52	7778,59
770,71	7868,71
770,89	7751,15
771,07	7986,26
771,25	7793,61
771,43	7956,36
771,61	7766,17
771,79	7681,52
771,97	7718,11
772,15	7683,98
772,33	7643,43
772,51	7784,74
772,69	7485,87
772,87	7728,49
773,05	7544,72
773,23	7770,27
773,41	7447,78
773,59	7642,75
773,77	7359,03
773,95	7388,80
774,13	7240,66
774,31	7425,12
774,49	7230,29
774,67	7207,89
774,85	7174,99
775,03	7170,21
775,21	7079,42
775,39	7150,69
775,57	7009,92
775,75	7331,59
775,93	6966,64
776,10	6944,39
776,28	6913,40
776,46	6828,61
776,64	6799,12
776,82	6750,51
777,00	9736,86
777,18	6601,70
777,36	6837,35
777,54	6747,51
777,72	6421,88
777,90	6728,67
778,08	6466,94
778,26	6416,83
778,44	6474,99
778,62	6557,73
778,80	6689,21
778,98	6523,19
779,16	6285,63
779,34	6629,82
779,52	6230,19
779,70	6530,56
779,88	6105,95
780,05	6185,55
780,23	6114,28
780,41	6286,99
780,59	6193,06
780,77	6334,23
780,95	6139,40
781,13	6216,40
781,31	6056,66
781,49	6266,37
781,67	6118,37
781,85	6003,14
782,03	5985,26
782,21	5992,77
782,39	5968,46
782,56	5961,09
782,74	5831,66
782,92	5778,28
783,10	6047,24
783,28	5643,25
783,46	5642,15
783,64	5912,49
783,82	5737,04
784,00	5758,34
784,18	5644,47
784,35	5589,32
784,53	5531,97
784,71	5539,21
784,89	5599,15
785,07	5505,49
785,25	5615,39
785,43	5609,39
785,61	5232,97
785,79	5454,56
785,96	5410,19
786,14	5248,12
786,32	5343,15
786,50	5331,55
786,68	5016,43
786,86	5225,73
787,04	5132,76
787,22	5127,43
787,39	5011,24
787,57	5060,94
787,75	5002,91
787,93	4964,82
788,11	4638,79
788,29	4937,24
788,47	4790,34
788,65	4739,00
788,82	4741,46
789,00	4693,40
789,18	4675,51
789,36	4628,00
789,54	4629,77
789,72	4640,42
789,89	4593,46
790,07	4738,45
790,25	4706,64
790,43	4586,63
790,61	4651,07
790,79	4480,14
790,96	4433,58
791,14	4723,44
791,32	4392,48
791,50	4576,53
791,68	4492,70
791,86	4530,11
792,03	4322,99
792,21	4435,22
792,39	4253,36
792,57	4273,43
792,75	4182,50
792,93	4378,01
793,10	4384,15
793,28	4380,06
793,46	4130,34
793,64	4466,35
793,82	4436,99
793,99	4402,31
794,17	4145,77
794,35	4342,24
794,53	4288,45
794,71	4108,36
794,88	4116,83
795,06	4103,99
795,24	3941,79
795,42	4064,40
795,60	4124,20
795,77	3962,00
795,95	4004,46
796,13	3985,07
796,31	4066,45
796,49	4365,59
796,66	4062,76
796,84	3939,06
797,02	4194,92
797,20	4069,18
797,37	4102,35
797,55	3876,80
797,73	3962,55
797,91	3903,16
798,08	4057,16
798,26	4087,34
798,44	3877,49
798,62	3788,47
798,80	3898,51
798,97	3856,46
799,15	3675,28
799,33	3974,83
799,51	3916,26
799,68	3817,00
799,86	3835,57
800,04	3690,85
800,22	3710,78
800,39	3677,74
800,57	3812,09
800,75	3728,53
800,93	3702,73
801,10	3706,41
801,28	3901,65
801,46	3573,16
801,63	3577,94
801,81	3643,06
801,99	3400,17
802,17	3544,08
802,34	3650,57
802,52	3450,55
802,70	3617,26
802,88	3636,37
803,05	3617,81
803,23	3485,92
803,41	3363,45
803,58	3483,32
803,76	3511,31
803,94	3601,01
804,12	3530,02
804,29	3406,45
804,47	3588,45
804,65	3533,70
804,82	3445,37
805,00	3407,82
805,18	3478,27
805,35	3403,45
805,53	3464,34
805,71	3443,86
805,89	3536,71
806,06	3536,84
806,24	3259,82
806,42	3460,52
806,59	3313,20
806,77	3544,90
806,95	3394,30
807,12	3442,09
807,30	3488,92
807,48	3240,16
807,65	3139,13
807,83	3321,94
808,01	3289,86
808,18	3249,85
808,36	3212,31
808,54	3060,07
808,71	3236,75
808,89	3156,88
809,07	3127,52
809,24	3255,59
809,42	3267,47
809,60	3001,50
809,77	3057,75
809,95	3103,90
810,13	2984,44
810,30	2918,08
810,48	3087,38
810,66	2936,38
810,83	3022,26
811,01	2903,61
811,18	2744,14
811,36	2658,13
811,54	2781,82
811,71	2849,41
811,89	2822,51
812,07	2692,26
812,24	2998,64
812,42	2535,66
812,59	2508,08
812,77	2579,21
812,95	2547,13
813,12	2503,03
813,30	2357,35
813,48	2420,84
813,65	2426,57
813,83	2437,90
814,00	2402,81
814,18	2406,09
814,36	2289,36
814,53	2265,33
814,71	2186,41
814,88	2275,16
815,06	2087,29
815,24	2235,02
815,41	1947,62
815,59	2144,36
815,76	1934,51
815,94	2186,00
816,12	1951,71
816,29	2214,40
816,47	2075,68
816,64	2209,49
816,82	1986,53
817,00	2305,06
817,17	2007,15
817,35	2225,32
817,52	1975,20
817,70	2087,56
817,87	2141,36
818,05	2061,08
818,23	1957,72
818,40	2243,62
818,58	2072,82
818,75	1920,59
818,93	2002,78
819,10	2033,50
819,28	1945,43
819,46	2167,30
819,63	2061,76
819,81	2408,00
819,98	2084,56
820,16	2350,66
820,33	2103,67
820,51	2406,36
820,68	2247,44
820,86	2215,36
821,03	2321,58
821,21	2263,55
821,39	2331,82
821,56	2105,45
821,74	1941,34
821,91	1797,98
822,09	1780,37
822,26	1746,92
822,44	1618,58
822,61	1611,89
822,79	1857,23
822,96	1873,35
823,14	1837,71
823,31	1823,24
823,49	2077,05
823,66	2101,35
823,84	2041,01
824,01	2031,31
824,19	1883,31
824,36	2181,91
824,54	2113,50
824,71	2253,18
824,89	2118,96
825,06	2283,62
825,24	2030,08
825,41	2062,99
825,59	2059,16
825,76	2224,09
825,94	1953,22
826,11	2234,47
826,29	2014,25
826,46	2088,66
826,64	2093,16
826,81	2040,60
826,99	1933,15
827,16	1797,16
827,34	1684,25
827,51	1908,02
827,69	2096,44
827,86	1948,57
828,04	1867,34
828,21	1799,21
828,39	1977,11
828,56	1860,24
828,74	1945,02
828,91	1868,57
829,09	2204,57
829,26	1894,64
829,43	1951,17
829,61	1905,43
829,78	1823,24
829,96	1966,32
830,13	1819,69
830,31	2007,42
830,48	1878,12
830,66	1817,23
830,83	1713,47
831,01	1804,26
831,18	1862,01
831,35	1830,88
831,53	1896,42
831,70	1994,59
831,88	2196,92
832,05	1905,43
832,23	1731,90
832,40	1947,75
832,57	1925,09
832,75	1749,65
832,92	1809,59
833,10	2090,70
833,27	1914,30
833,45	1832,25
833,62	1762,35
833,79	1895,46
833,97	1827,47
834,14	1836,75
834,32	1917,31
834,49	1760,98
834,66	1832,11
834,84	1777,64
835,01	1948,16
835,19	1695,45
835,36	1730,40
835,53	2023,67
835,71	1933,83
835,88	1948,98
836,06	1960,18
836,23	2042,37
836,40	1727,12
836,58	1821,74
836,75	1871,98
836,93	1829,38
837,10	1776,41
837,27	1914,30
837,45	1777,50
837,62	1780,78
837,79	1754,97
837,97	1936,70
838,14	1732,04
838,32	1775,45
838,49	1735,72
838,66	1875,94
838,84	1933,83
839,01	1879,22
839,18	1917,17
839,36	1745,83
839,53	1732,85
839,70	1852,87
839,88	1670,05
840,05	1914,99
840,23	1798,66
840,40	1646,02
840,57	1770,67
840,75	1841,53
840,92	1933,69
841,09	1819,69
841,27	1849,04
841,44	1733,81
841,61	1817,64
841,79	1681,52
841,96	1706,91
842,13	1701,32
842,31	1745,42
842,48	1705,00
842,65	1617,90
842,83	1612,57
843,00	1791,02
843,17	1581,03
843,35	1786,65
843,52	1770,13
843,69	1811,22
843,86	1654,76
844,04	1600,56
844,21	1672,10
844,38	1736,27
844,56	1721,66
844,73	1733,95
844,90	1777,36
845,08	1701,45
845,25	1618,85
845,42	1715,92
845,60	1671,55
845,77	1652,16
845,94	1590,59
846,11	1618,71
846,29	1826,11
846,46	1645,75
846,63	1502,66
846,81	1786,65
846,98	1641,92
847,15	1595,37
847,32	1679,74
847,50	1476,72
847,67	1516,45
847,84	1590,32
848,01	1636,05
848,19	1575,71
848,36	1610,80
848,53	1421,15
848,71	1605,61
848,88	1437,40
849,05	1369,54
849,22	1527,92
849,40	1422,11
849,57	1602,74
849,74	1497,88
849,91	1494,74
850,09	1376,64
850,26	1484,23
850,43	1494,47
850,60	1467,16
850,78	1504,44
850,95	1530,79
851,12	1388,11
851,29	1512,90
851,47	1612,98
851,64	1383,47
851,81	1520,55
851,98	1432,90
852,15	1592,50
852,33	1323,94
852,50	1428,39
852,67	1532,56
852,84	1454,88
853,02	1454,19
853,19	1521,78
853,36	1355,89
853,53	1204,48
853,70	1528,06
853,88	1467,98
854,05	1397,40
854,22	1291,59
854,39	1437,13
854,56	1454,47
854,74	1198,20
854,91	1434,67
855,08	1212,12
855,25	1428,80
855,42	1327,08
855,60	1335,69
855,77	1516,59
855,94	1533,38
856,11	1350,16
856,28	1349,88
856,46	1428,25
856,63	1320,26
856,80	1237,52
856,97	1557,28
857,14	1464,30
857,31	1365,72
857,49	1374,73
857,66	1452,69
857,83	1258,68
858,00	1303,46
858,17	1338,42
858,34	1339,64
858,52	1264,55
858,69	1357,39
858,86	1348,52
859,03	1266,05
859,20	1440,68
859,37	1398,90
859,55	1230,56
859,72	1443,68
859,89	1303,87
860,06	1474,13
860,23	1432,76
860,40	1205,57
860,57	1364,77
860,75	1146,32
860,92	1432,21
861,09	1393,16
861,26	1308,11
861,43	1302,78
861,60	1208,71
861,77	1188,64
861,95	1116,69
862,12	1287,35
862,29	1179,77
862,46	1333,36
862,63	1279,84
862,80	1486,01
862,97	1380,06
863,14	1113,69
863,31	1354,80
863,49	1383,61
863,66	1307,42
863,83	1251,99
864,00	1371,73
864,17	1132,66
864,34	1279,16
864,51	1026,58
864,68	1293,77
864,85	1157,51
865,02	1179,22
865,20	1234,24
865,37	1075,18
865,54	1249,12
865,71	1167,62
865,88	1035,32
866,05	1019,75
866,22	1103,45
866,39	1074,91
866,56	1134,57
866,73	1055,25
866,90	1306,60
867,07	1221,95
867,25	1078,73
867,42	1244,76
867,59	1117,10
867,76	1267,15
867,93	1085,97
868,10	1130,62
868,27	1007,05
868,44	1154,51
868,61	1126,38
868,78	1166,66
868,95	1044,19
869,12	1224,55
869,29	1180,04
869,46	1142,77
869,63	1199,97
869,80	961,04
869,97	1204,62
870,14	1059,48
870,32	1112,59
870,49	1070,81
870,66	1202,16
870,83	1245,85
871,00	1032,18
871,17	994,49
871,34	1190,55
871,51	1123,93
871,68	1041,32
871,85	1137,71
872,02	1293,77
872,19	1061,53
872,36	931,28
872,53	1085,42
872,70	1029,45
872,87	1026,44
873,04	849,91
873,21	907,80
873,38	910,25
873,55	1122,97
873,72	1122,56
873,89	961,04
874,06	889,91
874,23	907,25
874,40	1009,65
874,57	962,95
874,74	1174,71
874,91	842,12
875,08	1019,48
875,25	1037,64
875,42	1052,52
875,59	1083,92
875,76	1058,25
875,93	1002,55
876,10	1179,08
876,27	871,75
876,44	1265,64
876,61	1084,33
876,78	951,21
876,95	1032,31
877,12	906,02
877,29	963,50
877,46	1047,60
877,62	920,77
877,79	954,90
877,96	1043,64
878,13	944,39
878,30	825,06
878,47	1124,88
878,64	1036,27
878,81	961,04
878,98	974,56
879,15	1139,76
879,32	1038,05
879,49	1010,88
879,66	968,01
879,83	869,98
880,00	1096,07
880,17	815,09
880,34	958,45
880,51	860,42
880,67	1104,67
880,84	756,52
881,01	863,42
881,18	1025,90
881,35	843,35
881,52	1149,32
881,69	900,29
881,86	1136,76
882,03	923,91
882,20	960,36
882,37	925,55
882,54	953,67
882,70	912,17
882,87	881,99
883,04	931,55
883,21	959,13
883,38	778,77
883,55	882,26
883,72	862,06
883,89	794,48
884,06	763,89
884,23	767,72
884,39	711,87
884,56	1026,44
884,73	930,19
884,90	905,61
885,07	938,93
885,24	864,93
885,41	1000,36
885,58	862,74
885,74	764,30
885,91	972,92
886,08	879,26
886,25	741,09
886,42	779,46
886,59	855,23
886,76	766,49
886,93	659,31
887,09	1000,36
887,26	1274,66
887,43	865,74
887,60	915,03
887,77	869,84
887,94	952,85
888,10	1110,82
888,27	1012,11
888,44	842,53
888,61	589,27
888,78	776,04
888,95	892,78
889,12	691,26
889,28	885,54
889,45	719,25
889,62	813,73
889,79	795,02
889,96	839,80
890,13	830,66
890,29	738,63
890,46	906,98
890,63	978,25
890,80	869,57
890,97	770,17
891,13	716,52
891,30	936,47
891,47	1060,30
891,64	671,60
891,81	619,03
891,98	791,61
892,14	758,29
892,31	725,94
892,48	707,78
892,65	761,30
892,82	770,45
892,98	564,28
893,15	824,10
893,32	856,46
>>>>>End Processed Spectral Data<<<<<
